#     1332943838   -filetype ZipermE.out 
#
#	QTL Cartographer v. 1.17j, 28 January 2005
#	This output file (maricopa_trait94.z4e) was created by Zmapqtl...
#
#	It is 09:10:38 on Wednesday, 28 March 2012
#
#
#The position is from the left telomere on the chromosome
-window      10.00      Window size for models 5 and 6
-background      5      Background parameters in model 6
-Model           4      Model number
-trait          94      Analyzed trait [t_SFC_(n)_[%]]
-cross         RF2      Cross
#
#  Note that our Likelihood ratio test statistic compares two nested hypotheses
#  and is two times the negative natural log of the ratio of the likelihoods.  For example,
#  assume that  hypothesis H0 is nested within H1 and that they have likelihoods L0 and L1 respectively.
#  Then, the "Likelihood Ratio Test Statistic" is -2ln(L0/L1). 
#
#  Repetition    GlobalMax  -start  
    1        15.47050
    2        17.41373
    3        14.60048
    4        19.20493
    5        17.37297
    6        12.30934
    7        12.61070
    8        12.17958
    9        18.58405
   10        21.15853
   11        20.75109
   12        14.19216
   13        12.57634
   14        16.99832
   15        19.47877
   16        26.62872
   17        10.76333
   18        18.74747
   19        22.41481
   20        11.09116
   21        10.54235
   22        18.29823
   23        20.58546
   24        17.34102
   25        20.94794
   26        15.97630
   27        14.44538
   28        15.47607
   29        14.82186
   30        19.38148
   31        14.03933
   32        18.21550
   33        16.98526
   34        21.78778
   35        12.77658
   36        14.17475
   37        15.07524
   38        15.05933
   39        10.22676
   40        16.87743
   41        14.37608
   42        13.81782
   43        17.19225
   44        20.47289
   45        12.48143
   46        19.47412
   47        16.14444
   48        12.66755
   49         9.06106
   50        17.25483
   51        10.41470
   52        12.15666
   53        11.84373
   54        26.19921
   55        13.24245
   56        16.71867
   57         8.89336
   58        15.66750
   59        14.56258
   60        24.32425
   61        12.97315
   62        13.27733
   63        20.55748
   64        12.00231
   65        15.22278
   66        16.13602
   67        12.37235
   68        14.50346
   69        15.72507
   70        14.22929
   71        19.52395
   72        17.08669
   73        15.55189
   74        22.39588
   75        12.41031
   76         8.82683
   77        13.86328
   78        12.92240
   79        12.16892
   80        15.97420
   81        13.23534
   82        14.44626
   83        17.90626
   84        13.90994
   85        14.53126
   86        16.48388
   87        21.25739
   88        15.66139
   89        18.90578
   90        14.01372
   91        21.37925
   92        22.38686
   93        17.78007
   94        10.15740
   95        15.26773
   96        12.87399
   97        11.33113
   98        17.87016
   99        11.61542
  100        19.54933
  101        12.95770
  102        11.61721
  103        19.42896
  104        11.41516
  105        21.81914
  106        11.87572
  107        13.62734
  108        19.34978
  109        14.55523
  110        18.40556
  111        13.59530
  112        14.35822
  113        18.50527
  114        16.49061
  115        17.51705
  116        20.30372
  117        12.82989
  118        12.09051
  119        21.50157
  120        11.55467
  121        17.21297
  122         9.47915
  123        11.77628
  124        43.76233
  125        19.01386
  126        14.54721
  127        14.94534
  128        11.97259
  129        12.83859
  130        15.09018
  131        11.99266
  132        15.31876
  133        12.05904
  134        15.75344
  135        20.68192
  136        15.19280
  137        21.32161
  138        19.49665
  139        13.91225
  140        13.24830
  141        11.99405
  142        15.86065
  143        11.31868
  144        13.28368
  145        12.64706
  146         9.21753
  147        16.31798
  148        16.67610
  149        19.91483
  150        15.97638
  151        21.18220
  152        13.52074
  153        14.28904
  154        17.46842
  155        10.69841
  156        17.08261
  157        19.22309
  158        18.05594
  159        12.05442
  160        12.58103
  161        31.07051
  162        17.27141
  163        17.98384
  164        17.47066
  165         9.92036
  166        15.90805
  167        11.73211
  168        14.54186
  169        11.94959
  170        16.25727
  171        16.60044
  172        12.30618
  173        20.74148
  174        16.22787
  175        15.01913
  176        15.62693
  177        19.81274
  178        10.80543
  179        12.82955
  180        14.35220
  181        22.01105
  182        12.89661
  183         9.19557
  184        11.45137
  185        12.44973
  186        17.93377
  187        20.11216
  188        12.21909
  189        11.70816
  190        14.29377
  191        21.46560
  192        12.28579
  193        14.17177
  194        17.51124
  195         9.50183
  196        17.37782
  197        13.34605
  198        14.08040
  199        20.65528
  200        11.73930
  201        24.37866
  202        13.51837
  203        11.17847
  204        12.59692
  205        15.08310
  206        14.91350
  207        11.91165
  208        11.86590
  209        13.85169
  210        11.44555
  211        11.57741
  212        16.20842
  213        14.22510
  214        14.48674
  215         8.58543
  216        13.88567
  217        15.96323
  218        12.20791
  219        13.74666
  220        24.68331
  221        20.84141
  222        12.50131
  223        13.90475
  224        24.05723
  225        22.44017
  226        12.34209
  227        18.53759
  228        13.01391
  229        13.35236
  230        14.15842
  231        12.81869
  232         9.92028
  233        10.45079
  234        19.60433
  235        12.18128
  236        11.74017
  237        13.84523
  238        12.18482
  239        10.83188
  240        22.78509
  241         9.52215
  242        11.08645
  243        12.63723
  244        15.40081
  245        10.67675
  246        11.11770
  247        13.06151
  248        15.87700
  249        10.83495
  250        15.65650
  251        14.70849
  252        12.45345
  253        12.88786
  254        12.03381
  255        25.30626
  256        16.07384
  257        14.71065
  258        18.80159
  259        15.22245
  260        18.03696
  261        27.62404
  262        15.62164
  263        14.13781
  264        19.78250
  265        14.41587
  266        11.41244
  267        15.40217
  268        12.82088
  269        17.98120
  270        15.25991
  271        11.97594
  272        15.65609
  273        11.32171
  274        16.90417
  275        17.91600
  276        13.71604
  277        14.99619
  278        19.04700
  279        11.93900
  280        12.93677
  281        12.54367
  282        15.48083
  283        15.95770
  284        16.68092
  285        13.54728
  286        30.34401
  287        13.34656
  288        14.61571
  289        21.13393
  290        13.85855
  291        14.05305
  292        11.17654
  293        12.89071
  294        18.38569
  295        14.09502
  296        13.49852
  297        13.37847
  298        20.87625
  299        16.52695
  300        18.13091
  301        11.18690
  302        14.31680
  303        28.73347
  304        18.57785
  305        13.98528
  306        13.95861
  307        16.82804
  308        19.67490
  309        19.64400
  310        10.32022
  311        18.32666
  312        16.20424
  313        12.92142
  314        10.92699
  315        13.07910
  316        17.70114
  317        11.39974
  318        13.96118
  319        11.91352
  320        12.34448
  321        16.41329
  322        14.74479
  323        15.87898
  324        14.32196
  325        12.58105
  326        15.66805
  327        18.48773
  328        17.13056
  329        10.29117
  330        21.34478
  331         9.19507
  332        10.72692
  333        14.42754
  334        18.80642
  335        15.95552
  336        11.72816
  337        18.66349
  338        14.47905
  339        12.13008
  340        14.46915
  341        23.27338
  342        15.26254
  343        13.15061
  344        14.06368
  345        10.80021
  346        13.09540
  347        13.73081
  348        21.72133
  349        17.34109
  350        12.10315
  351        13.50937
  352        14.40562
  353        19.76473
  354        20.41502
  355        11.99976
  356        14.18735
  357        19.28489
  358        16.76440
  359        16.43164
  360        19.73192
  361        16.48128
  362        15.55180
  363        13.71597
  364        11.52104
  365        10.53242
  366        12.50527
  367        16.86043
  368        14.96981
  369        20.73018
  370        13.52295
  371        14.20206
  372        14.93657
  373        15.22704
  374        18.24057
  375         9.10998
  376        12.10316
  377         9.98499
  378        17.44061
  379        13.65003
  380        24.06168
  381        17.08624
  382         8.40497
  383        10.49414
  384        20.73974
  385        15.23885
  386        16.14676
  387        15.03927
  388        15.56658
  389        14.53235
  390        20.91542
  391        14.28713
  392        11.10300
  393        11.25245
  394        16.92885
  395        13.10627
  396        15.35216
  397        14.22751
  398        17.56879
  399        15.36746
  400        13.94546
  401         9.82191
  402        15.73409
  403        10.07245
  404        16.57822
  405        14.61499
  406        11.36884
  407        15.31232
  408        15.58184
  409        13.04174
  410         9.12415
  411        12.66713
  412        20.48737
  413        16.19494
  414        14.94199
  415        12.62210
  416        13.65942
  417        16.44813
  418        16.83307
  419        16.08939
  420        12.50113
  421        21.44627
  422        13.48288
  423        17.44338
  424        16.21086
  425        15.53930
  426        17.81276
  427        14.33204
  428        18.64080
  429        17.60274
  430        14.81574
  431        13.70359
  432        12.02044
  433        20.51883
  434        17.12498
  435        10.18140
  436        11.86725
  437        20.10578
  438        10.78432
  439        19.95219
  440         8.73678
  441        17.93772
  442         9.74012
  443        15.75841
  444        10.81882
  445        12.81283
  446        12.88050
  447        11.26202
  448        18.33011
  449        18.11710
  450        12.27788
  451        12.59693
  452        11.49686
  453        14.78020
  454        22.56579
  455        16.45962
  456        11.86312
  457        14.29744
  458         9.98444
  459        14.62688
  460        10.73841
  461        36.31894
  462        15.88809
  463        21.91112
  464        11.10042
  465        22.33342
  466        21.29856
  467        11.41499
  468        14.32973
  469        17.93364
  470        16.88045
  471        12.34020
  472        14.94584
  473        15.26843
  474        31.83737
  475        11.62566
  476        16.48464
  477        11.60067
  478        32.87521
  479        14.07334
  480        12.95681
  481        17.71431
  482        15.85060
  483        37.47472
  484        20.76822
  485        16.19938
  486        17.61628
  487        16.96829
  488        17.33521
  489        12.11626
  490        16.71805
  491        12.19116
  492        13.34712
  493        17.44223
  494        16.32732
  495        11.26468
  496        10.01555
  497        17.67936
  498        13.05002
  499         9.56379
  500        11.40964
  501        12.23196
  502        11.90419
  503        16.04160
  504        11.99428
  505        11.31868
  506        15.95060
  507         8.93875
  508        15.21085
  509         9.79029
  510        12.35680
  511        14.63382
  512         9.02481
  513        12.68341
  514        25.43702
  515        11.59248
  516        16.24837
  517        14.95182
  518         9.74009
  519        19.43349
  520        13.60154
  521        16.15359
  522        19.78980
  523        12.51088
  524        10.62814
  525        13.14364
  526        10.56094
  527        18.66285
  528         9.90551
  529        22.30993
  530         9.57286
  531        12.16153
  532        17.83728
  533        14.85953
  534        20.08993
  535        23.23010
  536        18.68676
  537        15.80365
  538        22.74839
  539        14.45196
  540        17.49678
  541        15.29879
  542        28.85692
  543        24.20783
  544        16.91816
  545        15.57712
  546        15.56499
  547        13.71619
  548        16.14439
  549        14.80000
  550         9.91956
  551        12.39592
  552        12.56856
  553        18.52794
  554        13.68780
  555        16.55255
  556        18.82397
  557        10.17961
  558        16.64826
  559        15.75823
  560        11.38459
  561        18.25421
  562         9.73104
  563        11.66841
  564        13.10801
  565        13.62830
  566        18.16528
  567        11.48773
  568        14.85527
  569        10.33599
  570        20.97576
  571        12.27508
  572        21.86974
  573        18.50530
  574        20.63338
  575        14.31820
  576        13.79467
  577        14.37465
  578        10.78335
  579        18.51087
  580        15.53697
  581        10.11594
  582        13.16188
  583        18.37355
  584         9.76483
  585        13.74160
  586        17.62531
  587        12.57860
  588        12.27051
  589        13.44693
  590        14.06165
  591        22.30576
  592        10.54228
  593        13.73623
  594        16.22989
  595        22.55908
  596        13.91236
  597        20.73294
  598        12.23476
  599        15.26941
  600        16.13553
  601        12.54065
  602        14.42439
  603        13.24754
  604        11.88042
  605        15.83897
  606        13.10103
  607        13.23785
  608        12.16496
  609        21.34938
  610        15.47857
  611        18.95726
  612        19.95566
  613        12.78711
  614        11.34871
  615        16.66478
  616        11.13814
  617        13.15339
  618        20.92181
  619        15.17830
  620        17.71715
  621        12.22998
  622        16.52943
  623         9.85495
  624        14.50577
  625        12.71483
  626        14.24900
  627        12.22727
  628        16.05750
  629        17.56335
  630        13.21986
  631        14.73228
  632        12.41635
  633        11.92049
  634        16.98297
  635        13.69213
  636        13.61454
  637        18.60359
  638        14.35419
  639        16.93405
  640        13.61470
  641        20.70126
  642        10.47003
  643         9.54258
  644        11.16664
  645        14.37630
  646        13.13553
  647        21.77698
  648        15.96361
  649        19.95136
  650        12.45440
  651        13.89541
  652        25.01843
  653        13.77662
  654        12.99244
  655        16.43259
  656        19.12744
  657        22.72969
  658        12.75560
  659        26.49368
  660        14.54336
  661        13.77530
  662        11.15799
  663        13.95716
  664        13.61816
  665        11.47537
  666        11.74163
  667        18.05427
  668        14.47169
  669         9.00233
  670        12.03706
  671        17.68945
  672        14.91764
  673        14.89139
  674        11.06337
  675        13.85447
  676        22.42487
  677        19.34604
  678        17.31385
  679        14.53414
  680        13.21811
  681        17.62134
  682        15.38946
  683        19.91427
  684         9.89500
  685        11.34714
  686        14.83439
  687        10.92622
  688        14.37553
  689        15.26010
  690        18.77395
  691        19.29672
  692        13.94715
  693        12.45380
  694        14.96224
  695        11.43956
  696        18.26533
  697        19.63723
  698        15.41041
  699        13.71364
  700        14.26367
  701        14.13122
  702        14.45261
  703        19.58037
  704        17.65583
  705        17.79267
  706        12.81494
  707        15.10697
  708        17.49742
  709        12.74381
  710        15.12816
  711        15.82389
  712        14.45429
  713        17.49279
  714        13.28147
  715        13.49040
  716        20.66503
  717        21.43707
  718        11.89551
  719        22.94204
  720        13.99226
  721        10.24888
  722        11.69199
  723        13.76435
  724        11.86808
  725        29.55785
  726        12.20081
  727        15.12317
  728        15.14244
  729        10.33816
  730        19.19361
  731        24.91206
  732        13.84522
  733        10.71747
  734        16.05981
  735        14.70493
  736        16.94150
  737        17.67299
  738        16.69405
  739        12.07578
  740        14.30164
  741        14.20044
  742        20.32926
  743        14.12177
  744        14.70476
  745        17.60915
  746        13.55813
  747        11.25136
  748         9.66520
  749        23.83408
  750        28.29578
  751        20.86830
  752        10.89945
  753         9.00804
  754        18.90277
  755        14.81580
  756        22.71673
  757        15.45279
  758        17.73300
  759        15.86296
  760        13.06621
  761        32.25605
  762        11.48795
  763        12.18052
  764        24.98579
  765        12.86949
  766        11.11858
  767        15.76433
  768        16.65047
  769        20.78600
  770        15.67865
  771        15.11837
  772        15.31224
  773        17.78391
  774        10.60899
  775        12.86905
  776        18.44866
  777        14.80068
  778        11.34330
  779        20.29243
  780        22.11609
  781        13.12832
  782        14.86563
  783        14.82165
  784        13.95349
  785        11.99807
  786        24.42151
  787        11.22200
  788        13.48554
  789        26.05134
  790        11.32060
  791        16.53500
  792        13.15110
  793        15.99234
  794        11.11289
  795        14.82734
  796        19.04874
  797        15.42809
  798        11.34161
  799         9.89244
  800        12.89726
  801        14.04309
  802        10.65773
  803        21.03445
  804        15.23712
  805        12.36541
  806        13.36469
  807        23.58625
  808         9.69728
  809        24.63989
  810        13.45788
  811        12.60764
  812        13.48494
  813        20.10699
  814         8.48075
  815        13.26942
  816        23.99580
  817        16.13741
  818        20.77232
  819        16.63922
  820        12.10248
  821        13.34915
  822        12.26218
  823         9.74145
  824        16.17378
  825        12.89475
  826        15.84775
  827        20.27184
  828        20.42044
  829        14.61482
  830        16.76880
  831        10.90623
  832        16.05699
  833        12.08147
  834        13.35798
  835        16.14229
  836        12.80515
  837        12.15211
  838        12.83766
  839        13.54544
  840        15.19798
  841        17.75821
  842        22.08009
  843        12.14884
  844        15.90301
  845        11.50017
  846        20.68431
  847        13.83168
  848        19.72667
  849        14.56672
  850        13.42282
  851        12.50156
  852        15.09419
  853        22.21905
  854        12.11095
  855        21.08517
  856        14.80059
  857        11.66206
  858        12.02079
  859        14.41036
  860        21.90357
  861         8.25525
  862        12.05233
  863        16.17737
  864        16.18378
  865        23.13464
  866        12.66985
  867         9.27077
  868        13.31179
  869        17.37182
  870        18.13682
  871        14.04315
  872        15.14925
  873        15.26654
  874        14.73527
  875        12.70309
  876        13.66468
  877        13.31351
  878        14.80903
  879        15.13704
  880        24.04200
  881        12.57387
  882        24.60291
  883        15.01864
  884        27.46412
  885        10.23658
  886        17.77193
  887        14.10899
  888        16.02169
  889        20.86331
  890        14.79505
  891        18.27137
  892        21.14839
  893         9.83457
  894        26.70793
  895        19.55632
  896        16.89849
  897        12.86216
  898        15.37113
  899        12.61100
  900        13.56370
  901        16.99455
  902        18.34703
  903        18.14893
  904        21.50152
  905         9.59957
  906        14.02214
  907        13.51608
  908        13.15878
  909        13.29849
  910        12.48524
  911        30.91256
  912        12.71663
  913        15.61244
  914        13.46950
  915        15.46333
  916        25.90086
  917        15.53240
  918        13.84155
  919        16.12951
  920        12.48841
  921        11.69721
  922        18.97579
  923         8.06216
  924        23.25346
  925        11.66962
  926        15.98410
  927        18.88460
  928        17.18069
  929        18.57323
  930        11.05766
  931        13.01580
  932        11.20684
  933        17.28223
  934        11.81047
  935        16.16614
  936        19.95499
  937        13.59540
  938        12.83418
  939        12.75629
  940        16.50550
  941        15.08088
  942        20.73288
  943        12.13434
  944        14.41227
  945        20.29780
  946        19.51743
  947        10.60347
  948        18.39541
  949        16.10508
  950        15.16307
  951        12.94865
  952        17.13569
  953        14.67262
  954        10.01951
  955        24.94345
  956        17.82738
  957        10.26392
  958        13.92187
  959        14.35202
  960         9.71609
  961        17.85841
  962        12.92402
  963        14.60422
  964        18.32081
  965        14.21921
  966        11.02013
  967        30.05187
  968         8.29106
  969        18.26402
  970        13.04297
  971        16.99919
  972        29.64643
  973        15.35024
  974        14.80665
  975        13.62048
  976        14.82429
  977        12.47505
  978        16.68747
  979        18.74500
  980        12.56945
  981        20.57517
  982        22.26910
  983        18.28428
  984        22.52210
  985         9.99685
  986        16.08196
  987        12.87507
  988        11.00499
  989        15.45327
  990        22.24444
  991        15.34564
  992        17.11064
  993        12.85625
  994        12.22483
  995        15.14133
  996        13.05338
  997        17.43292
  998        11.91753
  999        23.53623
 1000        27.74206